File: docs/skjol/Polyethylene_resin_Cabernard_et_al_2018.csv
"","wavenumber","intensity","sample_name","group"
"6252482",300,0,5189,5189
"6253730",306.2,0,5189,5189
"6254978",312.3,0,5189,5189
"6256226",318.5,0.001,5189,5189
"6257474",324.6,0,5189,5189
"6258722",330.8,0.001,5189,5189
"6259970",336.9,0.001,5189,5189
"6261218",343.1,0.001,5189,5189
"6262466",349.2,0.002,5189,5189
"6263714",355.4,0.001,5189,5189
"6264962",361.6,0.001,5189,5189
"6266210",367.7,0.001,5189,5189
"6267458",373.9,0.001,5189,5189
"6268706",380,0,5189,5189
"6269954",386.2,0.001,5189,5189
"6271202",392.3,0.001,5189,5189
"6272450",398.5,0.001,5189,5189
"6273698",404.6,0.001,5189,5189
"6274946",410.8,0.001,5189,5189
"6276194",417,0.001,5189,5189
"6277442",423.1,0.001,5189,5189
"6278690",429.3,0.001,5189,5189
"6279938",435.4,0.001,5189,5189
"6281186",441.6,0.001,5189,5189
"6282434",447.7,0.001,5189,5189
"6283682",453.9,0.002,5189,5189
"6284930",460,0.001,5189,5189
"6286178",466.2,0.002,5189,5189
"6287426",472.3,0.002,5189,5189
"6288674",478.5,0.001,5189,5189
"6289922",484.7,0.001,5189,5189
"6291170",490.8,0.001,5189,5189
"6292418",497,0.002,5189,5189
"6293666",503.1,0.001,5189,5189
"6294914",509.3,0.001,5189,5189
"6296162",515.4,0,5189,5189
"6297410",521.6,0.001,5189,5189
"6298658",527.7,0.001,5189,5189
"6299906",533.9,0.001,5189,5189
"6301154",540.1,0.001,5189,5189
"6302402",546.2,0,5189,5189
"6303650",552.4,0.001,5189,5189
"6304898",558.5,0.001,5189,5189
"6306146",564.7,0.005,5189,5189
"6307394",570.8,0.003,5189,5189
"6308642",577,0,5189,5189
"6309890",583.1,0.002,5189,5189
"6311138",589.3,0.001,5189,5189
"6312386",595.5,0.003,5189,5189
"6313634",601.6,0.002,5189,5189
"6314882",607.8,0.001,5189,5189
"6316130",613.9,0.003,5189,5189
"6317378",620.1,0.006,5189,5189
"6318626",626.2,0.002,5189,5189
"6319874",632.4,0.001,5189,5189
"6321122",638.5,0.002,5189,5189
"6322370",644.7,0.003,5189,5189
"6323618",650.9,0.005,5189,5189
"6324866",657,0.004,5189,5189
"6326114",663.2,0.003,5189,5189
"6327362",669.3,0.001,5189,5189
"6328610",675.5,0.003,5189,5189
"6329858",681.6,0.005,5189,5189
"6331106",687.8,0,5189,5189
"6332354",693.9,0.002,5189,5189
"6333602",700.1,0.002,5189,5189
"6334850",706.3,0.001,5189,5189
"6336098",712.4,0.001,5189,5189
"6337346",718.6,0.003,5189,5189
"6338594",724.7,0.005,5189,5189
"6339842",730.9,0.002,5189,5189
"6341090",737,0,5189,5189
"6342338",743.2,0,5189,5189
"6343586",749.3,0.001,5189,5189
"6344834",755.5,0.001,5189,5189
"6346082",761.7,0.001,5189,5189
"6347330",767.8,0.001,5189,5189
"6348578",774,0.001,5189,5189
"6349826",780.1,0.002,5189,5189
"6351074",786.3,0.001,5189,5189
"6352322",792.4,0.001,5189,5189
"6353570",798.6,0.001,5189,5189
"6354818",804.7,0.001,5189,5189
"6356066",810.9,0.001,5189,5189
"6357314",817,0.001,5189,5189
"6358562",823.2,0.001,5189,5189
"6359810",829.4,0.001,5189,5189
"6361058",835.5,0.002,5189,5189
"6362306",841.7,0.002,5189,5189
"6363554",847.8,0.004,5189,5189
"6364802",854,0.005,5189,5189
"6366050",860.1,0.006,5189,5189
"6367298",866.3,0.009,5189,5189
"6368546",872.4,0.013,5189,5189
"6369794",878.6,0.013,5189,5189
"6371042",884.8,0.017,5189,5189
"6372290",890.9,0.027,5189,5189
"6373538",897.1,0.021,5189,5189
"6374786",903.2,0.008,5189,5189
"6376034",909.4,0.004,5189,5189
"6377282",915.5,0.002,5189,5189
"6378530",921.7,0.006,5189,5189
"6379778",927.8,0.002,5189,5189
"6381026",934,0.001,5189,5189
"6382274",940.2,0.002,5189,5189
"6383522",946.3,0.001,5189,5189
"6384770",952.5,0.001,5189,5189
"6386018",958.6,0.001,5189,5189
"6387266",964.8,0.001,5189,5189
"6388514",970.9,0.001,5189,5189
"6389762",977.1,0.001,5189,5189
"6391010",983.2,0.001,5189,5189
"6392258",989.4,0.001,5189,5189
"6393506",995.6,0.001,5189,5189
"6394754",1001.7,0.002,5189,5189
"6396002",1007.9,0.003,5189,5189
"6397250",1014,0.005,5189,5189
"6398498",1020.2,0.007,5189,5189
"6399746",1026.3,0.011,5189,5189
"6400994",1032.5,0.016,5189,5189
"6402242",1038.6,0.022,5189,5189
"6403490",1044.8,0.038,5189,5189
"6404738",1051,0.07,5189,5189
"6405986",1057.1,0.259,5189,5189
"6407234",1063.3,0.639,5189,5189
"6408482",1069.4,0.164,5189,5189
"6409730",1075.6,0.083,5189,5189
"6410978",1081.7,0.074,5189,5189
"6412226",1087.9,0.061,5189,5189
"6413474",1094,0.045,5189,5189
"6414722",1100.2,0.037,5189,5189
"6415970",1106.4,0.041,5189,5189
"6417218",1112.5,0.059,5189,5189
"6418466",1118.7,0.119,5189,5189
"6419714",1124.8,0.39,5189,5189
"6420962",1131,0.613,5189,5189
"6422210",1137.1,0.147,5189,5189
"6423458",1143.3,0.044,5189,5189
"6424706",1149.4,0.015,5189,5189
"6425954",1155.6,0.003,5189,5189
"6427202",1161.7,0.003,5189,5189
"6428450",1167.9,0.054,5189,5189
"6429698",1174.1,0.033,5189,5189
"6430946",1180.2,0.003,5189,5189
"6432194",1186.4,0,5189,5189
"6433442",1192.5,0.001,5189,5189
"6434690",1198.7,0.001,5189,5189
"6435938",1204.8,0.001,5189,5189
"6437186",1211,0.001,5189,5189
"6438434",1217.1,0.001,5189,5189
"6439682",1223.3,0.001,5189,5189
"6440930",1229.5,0.001,5189,5189
"6442178",1235.6,0.001,5189,5189
"6443426",1241.8,0.001,5189,5189
"6444674",1247.9,0.005,5189,5189
"6445922",1254.1,0.009,5189,5189
"6447170",1260.2,0.02,5189,5189
"6448418",1266.4,0.033,5189,5189
"6449666",1272.5,0.041,5189,5189
"6450914",1278.7,0.049,5189,5189
"6452162",1284.9,0.088,5189,5189
"6453410",1291,0.388,5189,5189
"6454658",1297.2,0.738,5189,5189
"6455906",1303.3,0.168,5189,5189
"6457154",1309.5,0.101,5189,5189
"6458402",1315.6,0.06,5189,5189
"6459650",1321.8,0.033,5189,5189
"6460898",1327.9,0.018,5189,5189
"6462146",1334.1,0.006,5189,5189
"6463394",1340.3,0.003,5189,5189
"6464642",1346.4,0.001,5189,5189
"6465890",1352.6,0.001,5189,5189
"6467138",1358.7,0.005,5189,5189
"6468386",1364.9,0.024,5189,5189
"6469634",1371,0.041,5189,5189
"6470882",1377.2,0.011,5189,5189
"6472130",1383.3,0.001,5189,5189
"6473378",1389.5,0,5189,5189
"6474626",1395.7,0.005,5189,5189
"6475874",1401.8,0.013,5189,5189
"6477122",1408,0.04,5189,5189
"6478370",1414.1,0.2,5189,5189
"6479618",1420.3,0.233,5189,5189
"6480866",1426.4,0.159,5189,5189
"6482114",1432.6,0.283,5189,5189
"6483362",1438.7,0.601,5189,5189
"6484610",1444.9,0.398,5189,5189
"6485858",1451.1,0.303,5189,5189
"6487106",1457.2,0.323,5189,5189
"6488354",1463.4,0.317,5189,5189
"6489602",1469.5,0.211,5189,5189
"6490850",1475.7,0.102,5189,5189
"6492098",1481.8,0.054,5189,5189
"6493346",1488,0.031,5189,5189
"6494594",1494.1,0.018,5189,5189
"6495842",1500.3,0.012,5189,5189
"6497090",1506.4,0.006,5189,5189
"6498338",1512.6,0.002,5189,5189
"6499586",1518.8,0.002,5189,5189
"6500834",1524.9,0.001,5189,5189
"6502082",1531.1,0.001,5189,5189
"6503330",1537.2,0.001,5189,5189
"6504578",1543.4,0.001,5189,5189
"6505826",1549.5,0.001,5189,5189
"6507074",1555.7,0.001,5189,5189
"6508322",1561.8,0.001,5189,5189
"6509570",1568,0.001,5189,5189
"6510818",1574.2,0.001,5189,5189
"6512066",1580.3,0.002,5189,5189
"6513314",1586.5,0.001,5189,5189
"6514562",1592.6,0.001,5189,5189
"6515810",1598.8,0.002,5189,5189
"6517058",1604.9,0.002,5189,5189
"6518306",1611.1,0.005,5189,5189
"6519554",1617.2,0.001,5189,5189
"6520802",1623.4,0.005,5189,5189
"6522050",1629.6,0.005,5189,5189
"6523298",1635.7,0.005,5189,5189
"6524546",1641.9,0.003,5189,5189
"6525794",1648,0.002,5189,5189
"6527042",1654.2,0,5189,5189
"6528290",1660.3,0,5189,5189
"6529538",1666.5,0.001,5189,5189
"6530786",1672.6,0.002,5189,5189
"6532034",1678.8,0,5189,5189
"6533282",1685,0,5189,5189
"6534530",1691.1,0,5189,5189
"6535778",1697.3,0,5189,5189
"6537026",1703.4,0,5189,5189
"6538274",1709.6,0,5189,5189
"6539522",1715.7,0.007,5189,5189
"6540770",1721.9,0.015,5189,5189
"6542018",1728,0.005,5189,5189
"6543266",1734.2,0,5189,5189
"6544514",1740.4,0,5189,5189
"6545762",1746.5,0,5189,5189
"6547010",1752.7,0,5189,5189
"6548258",1758.8,0,5189,5189
"6549506",1765,0,5189,5189
"6550754",1771.1,0,5189,5189
"6552002",1777.3,0,5189,5189
"6553250",1783.4,0,5189,5189
"6554498",1789.6,0,5189,5189
"6555746",1795.7,0,5189,5189
"6556994",1801.9,0,5189,5189
"6558242",1808.1,0,5189,5189
"6559490",1814.2,0,5189,5189
"6560738",1820.4,0,5189,5189
"6561986",1826.5,0,5189,5189
"6563234",1832.7,0,5189,5189
"6564482",1838.8,0,5189,5189
"6565730",1845,0,5189,5189
"6566978",1851.1,0,5189,5189
"6568226",1857.3,0,5189,5189
"6569474",1863.5,0,5189,5189
"6570722",1869.6,0,5189,5189
"6571970",1875.8,0,5189,5189
"6573218",1881.9,0,5189,5189
"6574466",1888.1,0,5189,5189
"6575714",1894.2,0,5189,5189
"6576962",1900.4,0,5189,5189
"6578210",1906.5,0,5189,5189
"6579458",1912.7,0,5189,5189
"6580706",1918.9,0,5189,5189
"6581954",1925,0,5189,5189
"6583202",1931.2,0,5189,5189
"6584450",1937.3,0,5189,5189
"6585698",1943.5,0,5189,5189
"6586946",1949.6,0,5189,5189
"6588194",1955.8,0,5189,5189
"6589442",1961.9,0,5189,5189
"6590690",1968.1,0,5189,5189
"6591938",1974.3,0,5189,5189
"6593186",1980.4,0,5189,5189
"6594434",1986.6,0,5189,5189
"6595682",1992.7,0,5189,5189
"6596930",1998.9,0,5189,5189
"6597346",2000.9,0,5189,5189